サンプル 1
2018/06/17 9:37
波長 (nm)	10mm Absorbance
//WLCalib: Shift 	0.84667	
//WLCalib: 261S 	0.51000	
//WLCalib: 362S 	0.41000	
//WLCalib: 484S 	0.41000	
//WLCalib: 529S 	0.87000	
//WLCalib: 823S 	-1.93000	
//QSpecEnd: 
220.0	3.934
220.5	3.808
221.0	3.692
221.5	3.578
222.0	3.473
222.5	3.369
223.0	3.271
223.5	3.180
224.0	3.099
224.5	3.035
225.0	2.986
225.5	2.947
226.0	2.920
226.5	2.898
227.0	2.883
227.5	2.872
228.0	2.866
228.5	2.865
229.0	2.870
229.5	2.878
230.0	2.889
230.5	2.904
231.0	2.924
231.5	2.954
232.0	2.987
232.5	3.026
233.0	3.071
233.5	3.123
234.0	3.181
234.5	3.244
235.0	3.309
235.5	3.378
236.0	3.451
236.5	3.528
237.0	3.614
237.5	3.712
238.0	3.812
238.5	3.911
239.0	4.004
239.5	4.088
240.0	4.169
240.5	4.247
241.0	4.324
241.5	4.404
242.0	4.489
242.5	4.583
243.0	4.680
243.5	4.771
244.0	4.860
244.5	4.946
245.0	5.030
245.5	5.119
246.0	5.209
246.5	5.299
247.0	5.391
247.5	5.479
248.0	5.561
248.5	5.637
249.0	5.709
249.5	5.783
250.0	5.860
250.5	5.939
251.0	6.024
251.5	6.107
252.0	6.189
252.5	6.265
253.0	6.323
253.5	6.374
254.0	6.416
254.5	6.447
255.0	6.473
255.5	6.492
256.0	6.504
256.5	6.506
257.0	6.499
257.5	6.494
258.0	6.482
258.5	6.467
259.0	6.450
259.5	6.430
260.0	6.408
260.5	6.384
261.0	6.355
261.5	6.321
262.0	6.283
262.5	6.234
263.0	6.176
263.5	6.105
264.0	6.026
264.5	5.948
265.0	5.864
265.5	5.782
266.0	5.700
266.5	5.615
267.0	5.518
267.5	5.410
268.0	5.308
268.5	5.213
269.0	5.121
269.5	5.028
270.0	4.933
270.5	4.839
271.0	4.744
271.5	4.645
272.0	4.542
272.5	4.436
273.0	4.329
273.5	4.225
274.0	4.121
274.5	4.014
275.0	3.901
275.5	3.784
276.0	3.668
276.5	3.552
277.0	3.436
277.5	3.320
278.0	3.207
278.5	3.097
279.0	2.993
279.5	2.896
280.0	2.799
280.5	2.701
281.0	2.605
281.5	2.510
282.0	2.417
282.5	2.325
283.0	2.237
283.5	2.154
284.0	2.073
284.5	1.995
285.0	1.918
285.5	1.838
286.0	1.752
286.5	1.663
287.0	1.580
287.5	1.503
288.0	1.428
288.5	1.354
289.0	1.283
289.5	1.210
290.0	1.137
290.5	1.063
291.0	0.988
291.5	0.921
292.0	0.858
292.5	0.796
293.0	0.737
293.5	0.678
294.0	0.624
294.5	0.572
295.0	0.524
295.5	0.481
296.0	0.443
296.5	0.408
297.0	0.376
297.5	0.344
298.0	0.314
298.5	0.285
299.0	0.258
299.5	0.233
300.0	0.211
300.5	0.190
301.0	0.172
301.5	0.152
302.0	0.134
302.5	0.120
303.0	0.105
303.5	0.093
304.0	0.081
304.5	0.071
305.0	0.062
305.5	0.057
306.0	0.051
306.5	0.045
307.0	0.041
307.5	0.035
308.0	0.032
308.5	0.027
309.0	0.025
309.5	0.022
310.0	0.020
310.5	0.018
311.0	0.017
311.5	0.016
312.0	0.015
312.5	0.015
313.0	0.014
313.5	0.011
314.0	0.009
314.5	0.008
315.0	0.009
315.5	0.009
316.0	0.009
316.5	0.009
317.0	0.008
317.5	0.007
318.0	0.008
318.5	0.006
319.0	0.005
319.5	0.005
320.0	0.004
320.5	0.004
321.0	0.005
321.5	0.005
322.0	0.006
322.5	0.005
323.0	0.004
323.5	0.003
324.0	0.003
324.5	0.004
325.0	0.004
325.5	0.004
326.0	0.004
326.5	0.005
327.0	0.004
327.5	0.005
328.0	0.005
328.5	0.005
329.0	0.005
329.5	0.007
330.0	0.005
330.5	0.006
331.0	0.007
331.5	0.008
332.0	0.007
332.5	0.005
333.0	0.005
333.5	0.005
334.0	0.004
334.5	0.004
335.0	0.002
335.5	0.000
336.0	0.000
336.5	0.001
337.0	-0.001
337.5	-0.001
338.0	-0.001
338.5	-0.001
339.0	-0.001
339.5	0.000
340.0	0.000
340.5	-0.001
341.0	0.000
341.5	0.001
342.0	0.002
342.5	0.003
343.0	0.002
343.5	0.003
344.0	0.001
344.5	0.002
345.0	0.003
345.5	0.003
346.0	0.004
346.5	0.004
347.0	0.003
347.5	0.002
348.0	0.004
348.5	0.003
349.0	0.003
349.5	0.003
350.0	0.002


サンプル 2
2018/06/17 9:38
波長 (nm)	10mm Absorbance
//WLCalib: Shift 	0.84667	
//WLCalib: 261S 	0.51000	
//WLCalib: 362S 	0.41000	
//WLCalib: 484S 	0.41000	
//WLCalib: 529S 	0.87000	
//WLCalib: 823S 	-1.93000	
//QSpecEnd: 
220.0	5.711
220.5	5.537
221.0	5.372
221.5	5.214
222.0	5.061
222.5	4.921
223.0	4.782
223.5	4.654
224.0	4.540
224.5	4.451
225.0	4.382
225.5	4.328
226.0	4.288
226.5	4.258
227.0	4.236
227.5	4.223
228.0	4.215
228.5	4.214
229.0	4.219
229.5	4.229
230.0	4.244
230.5	4.266
231.0	4.298
231.5	4.341
232.0	4.390
232.5	4.449
233.0	4.517
233.5	4.593
234.0	4.680
234.5	4.773
235.0	4.870
235.5	4.967
236.0	5.073
236.5	5.190
237.0	5.319
237.5	5.458
238.0	5.604
238.5	5.748
239.0	5.886
239.5	6.014
240.0	6.135
240.5	6.252
241.0	6.368
241.5	6.487
242.0	6.615
242.5	6.754
243.0	6.898
243.5	7.036
244.0	7.169
244.5	7.300
245.0	7.433
245.5	7.568
246.0	7.705
246.5	7.841
247.0	7.977
247.5	8.107
248.0	8.232
248.5	8.346
249.0	8.452
249.5	8.558
250.0	8.670
250.5	8.788
251.0	8.913
251.5	9.036
252.0	9.158
252.5	9.266
253.0	9.360
253.5	9.437
254.0	9.501
254.5	9.555
255.0	9.597
255.5	9.624
256.0	9.647
256.5	9.658
257.0	9.656
257.5	9.649
258.0	9.633
258.5	9.612
259.0	9.588
259.5	9.559
260.0	9.526
260.5	9.488
261.0	9.442
261.5	9.389
262.0	9.327
262.5	9.253
263.0	9.169
263.5	9.063
264.0	8.942
264.5	8.819
265.0	8.690
265.5	8.565
266.0	8.440
266.5	8.310
267.0	8.164
267.5	8.007
268.0	7.854
268.5	7.711
269.0	7.575
269.5	7.434
270.0	7.290
270.5	7.144
271.0	7.000
271.5	6.849
272.0	6.693
272.5	6.537
273.0	6.380
273.5	6.225
274.0	6.071
274.5	5.911
275.0	5.743
275.5	5.567
276.0	5.392
276.5	5.219
277.0	5.048
277.5	4.880
278.0	4.711
278.5	4.545
279.0	4.391
279.5	4.246
280.0	4.103
280.5	3.959
281.0	3.814
281.5	3.674
282.0	3.535
282.5	3.399
283.0	3.269
283.5	3.146
284.0	3.029
284.5	2.915
285.0	2.800
285.5	2.682
286.0	2.556
286.5	2.427
287.0	2.306
287.5	2.193
288.0	2.083
288.5	1.975
289.0	1.871
289.5	1.765
290.0	1.659
290.5	1.550
291.0	1.444
291.5	1.345
292.0	1.253
292.5	1.163
293.0	1.078
293.5	0.995
294.0	0.916
294.5	0.839
295.0	0.770
295.5	0.707
296.0	0.651
296.5	0.601
297.0	0.554
297.5	0.509
298.0	0.464
298.5	0.421
299.0	0.381
299.5	0.345
300.0	0.312
300.5	0.281
301.0	0.251
301.5	0.223
302.0	0.198
302.5	0.175
303.0	0.158
303.5	0.141
304.0	0.125
304.5	0.110
305.0	0.095
305.5	0.085
306.0	0.076
306.5	0.069
307.0	0.063
307.5	0.057
308.0	0.052
308.5	0.047
309.0	0.043
309.5	0.040
310.0	0.037
310.5	0.033
311.0	0.031
311.5	0.027
312.0	0.025
312.5	0.026
313.0	0.025
313.5	0.023
314.0	0.019
314.5	0.017
315.0	0.016
315.5	0.015
316.0	0.014
316.5	0.012
317.0	0.011
317.5	0.010
318.0	0.011
318.5	0.009
319.0	0.008
319.5	0.010
320.0	0.009
320.5	0.010
321.0	0.010
321.5	0.011
322.0	0.012
322.5	0.012
323.0	0.012
323.5	0.013
324.0	0.013
324.5	0.013
325.0	0.013
325.5	0.012
326.0	0.013
326.5	0.014
327.0	0.013
327.5	0.014
328.0	0.013
328.5	0.012
329.0	0.012
329.5	0.012
330.0	0.011
330.5	0.011
331.0	0.010
331.5	0.010
332.0	0.010
332.5	0.010
333.0	0.010
333.5	0.008
334.0	0.006
334.5	0.005
335.0	0.003
335.5	0.002
336.0	0.001
336.5	0.002
337.0	0.001
337.5	0.000
338.0	-0.002
338.5	0.000
339.0	-0.001
339.5	0.000
340.0	0.000
340.5	0.001
341.0	0.003
341.5	0.004
342.0	0.004
342.5	0.005
343.0	0.006
343.5	0.007
344.0	0.005
344.5	0.005
345.0	0.007
345.5	0.009
346.0	0.010
346.5	0.011
347.0	0.010
347.5	0.009
348.0	0.009
348.5	0.007
349.0	0.007
349.5	0.008
350.0	0.009


サンプル 3
2018/06/17 9:38
波長 (nm)	10mm Absorbance
//WLCalib: Shift 	0.84667	
//WLCalib: 261S 	0.51000	
//WLCalib: 362S 	0.41000	
//WLCalib: 484S 	0.41000	
//WLCalib: 529S 	0.87000	
//WLCalib: 823S 	-1.93000	
//QSpecEnd: 
220.0	15.657
220.5	15.364
221.0	15.083
221.5	14.795
222.0	14.481
222.5	14.152
223.0	13.835
223.5	13.512
224.0	13.195
224.5	12.919
225.0	12.696
225.5	12.499
226.0	12.333
226.5	12.191
227.0	12.063
227.5	11.941
228.0	11.832
228.5	11.727
229.0	11.618
229.5	11.514
230.0	11.410
230.5	11.301
231.0	11.189
231.5	11.071
232.0	10.952
232.5	10.828
233.0	10.706
233.5	10.587
234.0	10.473
234.5	10.369
235.0	10.274
235.5	10.186
236.0	10.104
236.5	10.029
237.0	9.951
237.5	9.870
238.0	9.792
238.5	9.716
239.0	9.646
239.5	9.582
240.0	9.531
240.5	9.482
241.0	9.434
241.5	9.384
242.0	9.322
242.5	9.256
243.0	9.192
243.5	9.127
244.0	9.065
244.5	9.005
245.0	8.947
245.5	8.894
246.0	8.838
246.5	8.788
247.0	8.740
247.5	8.688
248.0	8.643
248.5	8.604
249.0	8.567
249.5	8.536
250.0	8.506
250.5	8.473
251.0	8.441
251.5	8.414
252.0	8.390
252.5	8.371
253.0	8.348
253.5	8.335
254.0	8.317
254.5	8.304
255.0	8.291
255.5	8.270
256.0	8.249
256.5	8.225
257.0	8.201
257.5	8.184
258.0	8.164
258.5	8.144
259.0	8.124
259.5	8.103
260.0	8.079
260.5	8.057
261.0	8.028
261.5	7.999
262.0	7.965
262.5	7.921
263.0	7.874
263.5	7.815
264.0	7.749
264.5	7.683
265.0	7.612
265.5	7.544
266.0	7.477
266.5	7.407
267.0	7.327
267.5	7.244
268.0	7.161
268.5	7.083
269.0	7.009
269.5	6.931
270.0	6.851
270.5	6.771
271.0	6.692
271.5	6.611
272.0	6.525
272.5	6.436
273.0	6.344
273.5	6.254
274.0	6.163
274.5	6.065
275.0	5.963
275.5	5.852
276.0	5.741
276.5	5.627
277.0	5.513
277.5	5.397
278.0	5.277
278.5	5.157
279.0	5.041
279.5	4.931
280.0	4.819
280.5	4.702
281.0	4.581
281.5	4.461
282.0	4.339
282.5	4.214
283.0	4.091
283.5	3.970
284.0	3.850
284.5	3.731
285.0	3.608
285.5	3.480
286.0	3.339
286.5	3.191
287.0	3.046
287.5	2.908
288.0	2.773
288.5	2.640
289.0	2.509
289.5	2.374
290.0	2.238
290.5	2.099
291.0	1.962
291.5	1.837
292.0	1.721
292.5	1.606
293.0	1.496
293.5	1.393
294.0	1.292
294.5	1.196
295.0	1.111
295.5	1.034
296.0	0.965
296.5	0.901
297.0	0.844
297.5	0.787
298.0	0.730
298.5	0.676
299.0	0.626
299.5	0.579
300.0	0.537
300.5	0.496
301.0	0.455
301.5	0.418
302.0	0.383
302.5	0.351
303.0	0.324
303.5	0.297
304.0	0.274
304.5	0.251
305.0	0.231
305.5	0.214
306.0	0.199
306.5	0.184
307.0	0.174
307.5	0.162
308.0	0.152
308.5	0.142
309.0	0.134
309.5	0.126
310.0	0.120
310.5	0.113
311.0	0.107
311.5	0.102
312.0	0.097
312.5	0.094
313.0	0.090
313.5	0.085
314.0	0.080
314.5	0.075
315.0	0.071
315.5	0.069
316.0	0.066
316.5	0.062
317.0	0.060
317.5	0.058
318.0	0.055
318.5	0.052
319.0	0.049
319.5	0.047
320.0	0.044
320.5	0.043
321.0	0.040
321.5	0.039
322.0	0.039
322.5	0.037
323.0	0.035
323.5	0.034
324.0	0.034
324.5	0.033
325.0	0.032
325.5	0.031
326.0	0.031
326.5	0.031
327.0	0.030
327.5	0.030
328.0	0.029
328.5	0.029
329.0	0.029
329.5	0.028
330.0	0.026
330.5	0.024
331.0	0.023
331.5	0.022
332.0	0.021
332.5	0.019
333.0	0.018
333.5	0.018
334.0	0.015
334.5	0.013
335.0	0.012
335.5	0.010
336.0	0.010
336.5	0.009
337.0	0.006
337.5	0.005
338.0	0.004
338.5	0.004
339.0	0.003
339.5	0.003
340.0	0.000
340.5	-0.001
341.0	-0.002
341.5	-0.002
342.0	-0.002
342.5	-0.003
343.0	-0.005
343.5	-0.006
344.0	-0.009
344.5	-0.008
345.0	-0.008
345.5	-0.007
346.0	-0.007
346.5	-0.009
347.0	-0.011
347.5	-0.011
348.0	-0.010
348.5	-0.011
349.0	-0.012
349.5	-0.011
350.0	-0.013


サンプル 4
2018/06/17 9:39
波長 (nm)	10mm Absorbance
//WLCalib: Shift 	0.84667	
//WLCalib: 261S 	0.51000	
//WLCalib: 362S 	0.41000	
//WLCalib: 484S 	0.41000	
//WLCalib: 529S 	0.87000	
//WLCalib: 823S 	-1.93000	
//QSpecEnd: 
220.0	20.195
220.5	19.867
221.0	19.535
221.5	19.271
222.0	18.986
222.5	18.599
223.0	18.209
223.5	17.861
224.0	17.490
224.5	17.181
225.0	16.907
225.5	16.671
226.0	16.446
226.5	16.242
227.0	16.048
227.5	15.876
228.0	15.720
228.5	15.546
229.0	15.362
229.5	15.158
230.0	14.973
230.5	14.766
231.0	14.542
231.5	14.308
232.0	14.048
232.5	13.787
233.0	13.522
233.5	13.259
234.0	12.999
234.5	12.743
235.0	12.502
235.5	12.268
236.0	12.033
236.5	11.792
237.0	11.545
237.5	11.283
238.0	11.024
238.5	10.776
239.0	10.548
239.5	10.343
240.0	10.154
240.5	9.971
241.0	9.780
241.5	9.582
242.0	9.356
242.5	9.107
243.0	8.860
243.5	8.624
244.0	8.399
244.5	8.187
245.0	7.979
245.5	7.775
246.0	7.571
246.5	7.371
247.0	7.180
247.5	6.991
248.0	6.813
248.5	6.652
249.0	6.501
249.5	6.355
250.0	6.207
250.5	6.049
251.0	5.894
251.5	5.745
252.0	5.606
252.5	5.485
253.0	5.380
253.5	5.292
254.0	5.217
254.5	5.147
255.0	5.084
255.5	5.024
256.0	4.979
256.5	4.940
257.0	4.908
257.5	4.884
258.0	4.864
258.5	4.850
259.0	4.837
259.5	4.827
260.0	4.815
260.5	4.805
261.0	4.796
261.5	4.787
262.0	4.782
262.5	4.776
263.0	4.770
263.5	4.758
264.0	4.747
264.5	4.741
265.0	4.737
265.5	4.737
266.0	4.737
266.5	4.740
267.0	4.741
267.5	4.744
268.0	4.745
268.5	4.749
269.0	4.751
269.5	4.753
270.0	4.754
270.5	4.754
271.0	4.756
271.5	4.756
272.0	4.756
272.5	4.750
273.0	4.742
273.5	4.731
274.0	4.718
274.5	4.702
275.0	4.684
275.5	4.662
276.0	4.637
276.5	4.607
277.0	4.571
277.5	4.528
278.0	4.484
278.5	4.436
279.0	4.388
279.5	4.337
280.0	4.283
280.5	4.221
281.0	4.156
281.5	4.083
282.0	4.008
282.5	3.927
283.0	3.842
283.5	3.754
284.0	3.665
284.5	3.573
285.0	3.476
285.5	3.369
286.0	3.249
286.5	3.119
287.0	2.990
287.5	2.865
288.0	2.740
288.5	2.613
289.0	2.490
289.5	2.362
290.0	2.230
290.5	2.095
291.0	1.965
291.5	1.844
292.0	1.732
292.5	1.623
293.0	1.519
293.5	1.420
294.0	1.324
294.5	1.233
295.0	1.151
295.5	1.077
296.0	1.012
296.5	0.950
297.0	0.895
297.5	0.839
298.0	0.785
298.5	0.731
299.0	0.682
299.5	0.637
300.0	0.593
300.5	0.551
301.0	0.510
301.5	0.471
302.0	0.436
302.5	0.403
303.0	0.372
303.5	0.345
304.0	0.320
304.5	0.297
305.0	0.275
305.5	0.257
306.0	0.240
306.5	0.224
307.0	0.211
307.5	0.198
308.0	0.186
308.5	0.176
309.0	0.165
309.5	0.156
310.0	0.148
310.5	0.141
311.0	0.134
311.5	0.127
312.0	0.121
312.5	0.117
313.0	0.111
313.5	0.105
314.0	0.100
314.5	0.094
315.0	0.090
315.5	0.086
316.0	0.081
316.5	0.076
317.0	0.073
317.5	0.069
318.0	0.066
318.5	0.063
319.0	0.058
319.5	0.057
320.0	0.053
320.5	0.050
321.0	0.049
321.5	0.047
322.0	0.046
322.5	0.044
323.0	0.042
323.5	0.041
324.0	0.041
324.5	0.041
325.0	0.041
325.5	0.040
326.0	0.039
326.5	0.038
327.0	0.037
327.5	0.036
328.0	0.034
328.5	0.033
329.0	0.032
329.5	0.030
330.0	0.026
330.5	0.025
331.0	0.023
331.5	0.023
332.0	0.021
332.5	0.017
333.0	0.016
333.5	0.015
334.0	0.013
334.5	0.012
335.0	0.010
335.5	0.009
336.0	0.006
336.5	0.006
337.0	0.006
337.5	0.007
338.0	0.006
338.5	0.005
339.0	0.003
339.5	0.003
340.0	0.000
340.5	-0.001
341.0	-0.001
341.5	-0.001
342.0	-0.002
342.5	-0.003
343.0	-0.004
343.5	-0.005
344.0	-0.009
344.5	-0.010
345.0	-0.010
345.5	-0.011
346.0	-0.012
346.5	-0.012
347.0	-0.015
347.5	-0.015
348.0	-0.016
348.5	-0.019
349.0	-0.020
349.5	-0.021
350.0	-0.021

